#R (height above the photosphere Solar radii) n_e plasma freq (MHz)
1.000000 2.503959e+10 1420.986368
1.100000 1.013677e+10 904.120320
1.200000 4.771193e+09 620.282944
1.300000 2.521763e+09 450.950048
1.400000 1.459962e+09 343.120832
1.500000 9.091325e+08 270.763392
1.600000 6.006578e+08 220.084720
1.700000 4.166809e+08 183.306608
1.800000 3.010421e+08 155.808080
1.900000 2.250668e+08 134.719984
2.000000 1.732316e+08 118.192496
2.100000 1.367005e+08 104.993256
2.200000 1.102208e+08 94.277504
2.300000 9.054992e+07 85.451632
2.400000 7.561834e+07 78.089008
2.500000 6.406594e+07 71.877000
2.600000 5.497506e+07 66.582360
2.700000 4.771195e+07 62.028304
2.800000 4.182966e+07 58.078916
2.900000 3.700686e+07 54.628272
3.000000 3.300860e+07 51.592896
3.100000 2.966030e+07 48.906216
3.200000 2.683040e+07 46.514668
3.300000 2.441845e+07 44.374696
3.400000 2.234680e+07 42.450620
3.500000 2.055478e+07 40.712968
3.600000 1.899447e+07 39.137212
3.700000 1.762766e+07 37.702808
3.800000 1.642364e+07 36.392424
3.900000 1.535746e+07 35.191360
4.000000 1.440878e+07 34.087088
4.100000 1.356081e+07 33.068858
4.200000 1.279967e+07 32.127406
4.300000 1.211374e+07 31.254710
4.400000 1.149332e+07 30.443810
4.500000 1.093018e+07 29.688614
4.600000 1.041736e+07 28.983788
4.700000 9.948922e+06 28.324636
4.800000 9.519785e+06 27.707026
4.900000 9.125566e+06 27.127280
5.000000 8.762483e+06 26.582140
5.100000 8.427253e+06 26.068698
5.200000 8.117015e+06 25.584358
5.300000 7.829274e+06 25.126794
5.400000 7.561834e+06 24.693912
5.500000 7.312766e+06 24.283830
5.600000 7.080366e+06 23.894844
5.700000 6.863124e+06 23.525414
5.800000 6.659701e+06 23.174144
5.900000 6.468902e+06 22.839764
6.000000 6.289660e+06 22.521116
6.100000 6.121022e+06 22.217148
6.200000 5.962128e+06 21.926888
6.300000 5.812212e+06 21.649460
6.400000 5.670576e+06 21.384048
6.500000 5.536592e+06 21.129908
6.600000 5.409693e+06 20.886354
6.700000 5.289362e+06 20.652754
6.800000 5.175130e+06 20.428524
6.900000 5.066571e+06 20.213122
7.000000 4.963294e+06 20.006050
7.100000 4.864944e+06 19.806844
7.200000 4.771194e+06 19.615072
7.300000 4.681748e+06 19.430336
7.400000 4.596328e+06 19.252264
7.500000 4.514682e+06 19.080508
7.600000 4.436579e+06 18.914744
7.700000 4.361804e+06 18.754668
7.800000 4.290158e+06 18.600002
7.900000 4.221460e+06 18.450480
8.000000 4.155537e+06 18.305852
8.100000 4.092234e+06 18.165886
8.200000 4.031405e+06 18.030366
8.300000 3.972913e+06 17.899086
8.400001 3.916633e+06 17.771856
8.500000 3.862446e+06 17.648490
8.600000 3.810244e+06 17.528820
8.700000 3.759922e+06 17.412686
8.800000 3.711387e+06 17.299934
8.900001 3.664548e+06 17.190422
9.000000 3.619322e+06 17.084014
9.100000 3.575629e+06 16.980582
9.200000 3.533397e+06 16.880004
9.300000 3.492555e+06 16.782164
9.400001 3.453040e+06 16.686957
9.500000 3.414790e+06 16.594277
9.600000 3.377747e+06 16.504026
9.700000 3.341858e+06 16.416113
9.800000 3.307071e+06 16.330447
9.900001 3.273338e+06 16.246946
10.000000 3.240613e+06 16.165529
10.100000 3.208854e+06 16.086120
10.200000 3.178020e+06 16.008647
10.300000 3.148072e+06 15.933040
10.400001 3.118974e+06 15.859234
10.500000 3.090692e+06 15.787167
10.600000 3.063193e+06 15.716777
10.700000 3.036446e+06 15.648009
10.800000 3.010420e+06 15.580806
10.900001 2.985090e+06 15.515117
